# Te = 30     Ne =  2e-03
#   Spectrum    CRETIN_LA2
#  CRETIN_LA2
      5.000000      4.819e+00
      5.010000      4.773e+00
      5.020000      4.752e+00
      5.030000      4.725e+00
      5.040000      4.674e+00
      5.050000      4.653e+00
      5.060000      4.580e+00
      5.070000      4.557e+00
      5.080000      4.515e+00
      5.090000      4.486e+00
      5.100000      4.426e+00
      5.110000      4.407e+00
      5.120000      4.366e+00
      5.130000      4.341e+00
      5.140000      4.304e+00
      5.150000      4.247e+00
      5.160000      4.208e+00
      5.170000      4.174e+00
      5.180000      4.119e+00
      5.190000      4.072e+00
      5.200000      4.048e+00
      5.210000      4.012e+00
      5.220000      3.940e+00
      5.228370      3.914e+00
      5.230000      3.907e+00
      5.240000      3.885e+00
      5.250000      3.807e+00
      5.260000      3.795e+00
      5.270000      3.720e+00
      5.280000      3.718e+00
      5.290000      3.701e+00
      5.300000      3.588e+00
      5.310000      3.607e+00
      5.320000      3.589e+00
      5.330000      3.542e+00
      5.340000      3.552e+00
      5.350000      3.581e+00
      5.360000      3.494e+00
      5.370000      3.498e+00
      5.380000      3.418e+00
      5.390000      3.420e+00
      5.400000      3.438e+00
      5.410000      3.340e+00
      5.420000      3.304e+00
      5.430000      3.245e+00
      5.440000      3.077e+00
      5.450000      2.995e+00
      5.460000      2.929e+00
      5.470000      2.859e+00
      5.480000      2.816e+00
      5.490000      2.771e+00
      5.500000      2.715e+00
      5.510000      2.718e+00
      5.520000      2.721e+00
      5.530000      2.702e+00
      5.538171      2.708e+00
      5.540000      2.852e+00
      5.550000      3.052e+00
      5.560000      3.209e+00
      5.570000      3.190e+00
      5.580000      3.349e+00
      5.590000      3.350e+00
      5.600000      3.293e+00
      5.610000      3.457e+00
      5.620000      3.556e+00
      5.630000      3.837e+00
      5.640000      4.016e+00
      5.650000      3.631e+00
      5.660000      3.344e+00
      5.670000      3.127e+00
      5.680000      2.929e+00
      5.690000      2.759e+00
      5.700000      2.477e+00
      5.710000      2.474e+00
      5.720000      2.682e+00
      5.730000      2.849e+00
      5.740000      2.880e+00
      5.750000      2.962e+00
      5.760000      3.117e+00
      5.770000      3.130e+00
      5.780000      3.295e+00
      5.790000      3.270e+00
      5.800000      3.039e+00
      5.810000      3.107e+00
      5.820000      3.253e+00
      5.830000      3.320e+00
      5.840000      3.343e+00
      5.850000      3.270e+00
      5.860000      3.047e+00
      5.866328      2.848e+00
      5.870000      2.715e+00
      5.880000      2.742e+00
      5.890000      2.783e+00
      5.900000      2.815e+00
      5.910000      2.742e+00
      5.920000      2.592e+00
      5.930000      2.451e+00
      5.940000      2.325e+00
      5.950000      2.214e+00
      5.960000      2.131e+00
      5.970000      2.123e+00
      5.980000      2.194e+00
      5.990000      2.421e+00
      6.000000      2.452e+00
      6.010000      2.514e+00
      6.020000      2.773e+00
      6.030000      2.869e+00
      6.040000      2.878e+00
      6.050000      2.840e+00
      6.060000      3.197e+00
      6.070000      3.402e+00
      6.080000      3.242e+00
      6.090000      3.063e+00
      6.100000      2.894e+00
      6.110000      2.559e+00
      6.120000      2.112e+00
      6.130000      1.911e+00
      6.140000      1.897e+00
      6.150000      1.973e+00
      6.160000      1.926e+00
      6.170000      1.704e+00
      6.180000      1.584e+00
      6.190000      1.581e+00
      6.200000      1.474e+00
      6.210000      1.394e+00
      6.213930      1.374e+00
      6.220000      1.371e+00
      6.230000      1.490e+00
      6.240000      1.505e+00
      6.250000      1.398e+00
      6.260000      1.463e+00
      6.270000      1.490e+00
      6.280000      1.490e+00
      6.290000      1.810e+00
      6.300000      2.016e+00
      6.310000      1.994e+00
      6.320000      2.108e+00
      6.330000      2.171e+00
      6.340000      2.300e+00
      6.350000      2.424e+00
      6.360000      2.572e+00
      6.370000      2.796e+00
      6.380000      2.676e+00
      6.390000      2.318e+00
      6.400000      2.077e+00
      6.410000      1.968e+00
      6.420000      1.923e+00
      6.430000      1.792e+00
      6.440000      1.668e+00
      6.450000      1.655e+00
      6.460000      1.548e+00
      6.470000      1.383e+00
      6.480000      1.277e+00
      6.490000      1.238e+00
      6.500000      1.201e+00
      6.510000      1.165e+00
      6.520000      1.150e+00
      6.530000      1.167e+00
      6.540000      1.173e+00
      6.550000      1.146e+00
      6.560000      1.139e+00
      6.570000      1.149e+00
      6.580000      1.151e+00
      6.582128      1.141e+00
      6.590000      1.155e+00
      6.600000      1.175e+00
      6.610000      1.191e+00
      6.620000      1.202e+00
      6.630000      1.225e+00
      6.640000      1.260e+00
      6.650000      1.308e+00
      6.660000      1.337e+00
      6.670000      1.355e+00
      6.680000      1.393e+00
      6.690000      1.454e+00
      6.700000      1.540e+00
      6.710000      1.617e+00
      6.720000      1.608e+00
      6.730000      1.561e+00
      6.740000      1.528e+00
      6.750000      1.505e+00
      6.760000      1.495e+00
      6.770000      1.498e+00
      6.780000      1.526e+00
      6.790000      1.511e+00
      6.800000      1.470e+00
      6.810000      1.466e+00
      6.820000      1.480e+00
      6.830000      1.512e+00
      6.840000      1.544e+00
      6.850000      1.576e+00
      6.860000      1.592e+00
      6.870000      1.597e+00
      6.880000      1.616e+00
      6.890000      1.631e+00
      6.900000      1.671e+00
      6.910000      1.703e+00
      6.920000      1.705e+00
      6.930000      1.702e+00
      6.940000      1.719e+00
      6.950000      1.741e+00
      6.960000      1.749e+00
      6.970000      1.736e+00
      6.972144      1.713e+00
      6.980000      1.711e+00
      6.990000      1.713e+00
      7.000000      1.748e+00
      7.010000      1.760e+00
      7.020000      1.777e+00
      7.030000      1.820e+00
      7.040000      1.861e+00
      7.050000      1.927e+00
      7.060000      2.019e+00
      7.070000      2.179e+00
      7.080000      2.461e+00
      7.090000      2.700e+00
      7.100000      2.717e+00
      7.110000      2.681e+00
      7.120000      2.827e+00
      7.130000      3.139e+00
      7.140000      3.177e+00
      7.150000      2.969e+00
      7.160000      2.879e+00
      7.170000      2.880e+00
      7.180000      2.877e+00
      7.190000      3.415e+00
      7.200000      3.490e+00
      7.210000      2.934e+00
      7.220000      2.818e+00
      7.230000      2.833e+00
      7.240000      3.028e+00
      7.250000      3.258e+00
      7.260000      3.296e+00
      7.270000      3.091e+00
      7.280000      2.893e+00
      7.290000      2.831e+00
      7.300000      2.872e+00
      7.310000      2.960e+00
      7.320000      3.090e+00
      7.330000      3.205e+00
      7.340000      3.310e+00
      7.350000      3.536e+00
      7.360000      3.766e+00
      7.370000      3.927e+00
      7.380000      4.088e+00
      7.385269      4.223e+00
      7.390000      4.356e+00
      7.400000      4.550e+00
      7.410000      4.817e+00
      7.420000      5.088e+00
      7.430000      5.403e+00
      7.440000      5.753e+00
      7.450000      6.012e+00
      7.460000      6.155e+00
      7.470000      9.309e+00
      7.480000      9.435e+00
      7.490000      6.482e+00
      7.500000      6.599e+00
      7.510000      6.664e+00
      7.520000      6.595e+00
      7.530000      6.526e+00
      7.540000      6.445e+00
      7.550000      6.421e+00
      7.560000      6.404e+00
      7.570000      6.375e+00
      7.580000      6.378e+00
      7.590000      7.235e+00
      7.600000      7.120e+00
      7.610000      6.047e+00
      7.620000      5.880e+00
      7.630000      5.707e+00
      7.640000      5.520e+00
      7.650000      5.324e+00
      7.660000      5.177e+00
      7.670000      5.104e+00
      7.680000      5.070e+00
      7.690000      5.146e+00
      7.700000      5.333e+00
      7.710000      5.521e+00
      7.720000      5.672e+00
      7.730000      5.965e+00
      7.740000      6.316e+00
      7.750000      6.659e+00
      7.760000      7.129e+00
      7.770000      7.598e+00
      7.780000      8.358e+00
      7.790000      9.161e+00
      7.800000      1.025e+01
      7.810000      1.234e+01
      7.820000      1.387e+01
      7.822874      1.513e+01
      7.830000      1.579e+01
      7.840000      1.648e+01
      7.850000      1.700e+01
      7.860000      1.720e+01
      7.870000      1.679e+01
      7.880000      1.607e+01
      7.890000      1.589e+01
      7.900000      1.610e+01
      7.910000      1.709e+01
      7.920000      1.675e+01
      7.930000      1.413e+01
      7.940000      1.269e+01
      7.950000      1.299e+01
      7.960000      1.344e+01
      7.970000      1.286e+01
      7.980000      1.158e+01
      7.990000      1.064e+01
      8.000000      1.031e+01
      8.010000      1.061e+01
      8.020000      1.134e+01
      8.030000      1.128e+01
      8.040000      1.036e+01
      8.050000      9.664e+00
      8.060000      9.430e+00
      8.070000      9.445e+00
      8.080000      9.647e+00
      8.090000      9.781e+00
      8.100000      9.607e+00
      8.110000      9.355e+00
      8.120000      9.329e+00
      8.130000      9.830e+00
      8.140000      1.001e+01
      8.150000      1.008e+01
      8.160000      1.101e+01
      8.170000      1.164e+01
      8.180000      1.210e+01
      8.190000      1.255e+01
      8.200000      1.259e+01
      8.210000      1.271e+01
      8.220000      1.316e+01
      8.230000      1.432e+01
      8.240000      1.469e+01
      8.250000      1.454e+01
      8.260000      1.520e+01
      8.270000      1.603e+01
      8.280000      1.686e+01
      8.286408      1.743e+01
      8.290000      1.797e+01
      8.300000      2.095e+01
      8.310000      2.189e+01
      8.320000      1.972e+01
      8.330000      1.859e+01
      8.340000      1.732e+01
      8.350000      1.640e+01
      8.360000      1.569e+01
      8.370000      1.545e+01
      8.380000      1.601e+01
      8.390000      1.777e+01
      8.400000      2.022e+01
      8.410000      2.044e+01
      8.420000      1.805e+01
      8.430000      1.582e+01
      8.440000      1.483e+01
      8.450000      1.518e+01
      8.460000      1.528e+01
      8.470000      1.443e+01
      8.480000      1.359e+01
      8.490000      1.250e+01
      8.500000      1.385e+01
      8.510000      1.337e+01
      8.520000      1.044e+01
      8.530000      9.795e+00
      8.540000      9.096e+00
      8.550000      8.300e+00
      8.560000      7.624e+00
      8.570000      7.341e+00
      8.580000      7.192e+00
      8.590000      6.905e+00
      8.600000      6.739e+00
      8.610000      6.803e+00
      8.620000      6.723e+00
      8.630000      6.623e+00
      8.640000      6.832e+00
      8.650000      7.152e+00
      8.660000      7.386e+00
      8.670000      7.534e+00
      8.680000      7.643e+00
      8.690000      7.718e+00
      8.700000      7.849e+00
      8.710000      8.156e+00
      8.720000      8.511e+00
      8.730000      8.899e+00
      8.740000      9.205e+00
      8.750000      9.423e+00
      8.760000      9.489e+00
      8.770000      9.353e+00
      8.777409      9.332e+00
      8.780000      9.542e+00
      8.790000      9.774e+00
      8.800000      9.794e+00
      8.810000      9.659e+00
      8.820000      9.747e+00
      8.830000      9.847e+00
      8.840000      9.961e+00
      8.850000      1.012e+01
      8.860000      1.023e+01
      8.870000      1.016e+01
      8.880000      1.019e+01
      8.890000      1.017e+01
      8.900000      1.001e+01
      8.910000      9.802e+00
      8.920000      9.355e+00
      8.930000      8.752e+00
      8.940000      8.040e+00
      8.950000      7.347e+00
      8.960000      6.728e+00
      8.970000      6.162e+00
      8.980000      5.702e+00
      8.990000      5.328e+00
      9.000000      4.989e+00
      9.010000      4.640e+00
      9.020000      4.273e+00
      9.030000      3.953e+00
      9.040000      3.689e+00
      9.050000      3.431e+00
      9.060000      3.294e+00
      9.070000      3.181e+00
      9.080000      2.956e+00
      9.090000      2.761e+00
      9.100000      2.572e+00
      9.110000      2.394e+00
      9.120000      2.288e+00
      9.130000      2.223e+00
      9.140000      2.183e+00
      9.150000      2.185e+00
      9.160000      2.242e+00
      9.170000      2.220e+00
      9.180000      2.121e+00
      9.190000      2.076e+00
      9.200000      2.117e+00
      9.210000      2.109e+00
      9.220000      2.087e+00
      9.230000      2.113e+00
      9.240000      2.174e+00
      9.250000      2.255e+00
      9.260000      2.294e+00
      9.270000      2.343e+00
      9.280000      2.333e+00
      9.290000      2.324e+00
      9.297503      2.390e+00
      9.300000      2.361e+00
      9.310000      2.345e+00
      9.320000      2.361e+00
      9.330000      2.380e+00
      9.340000      2.396e+00
      9.350000      2.381e+00
      9.360000      2.330e+00
      9.370000      2.276e+00
      9.380000      2.251e+00
      9.390000      2.251e+00
      9.400000      2.231e+00
      9.410000      2.163e+00
      9.420000      2.109e+00
      9.430000      2.076e+00
      9.440000      2.054e+00
      9.450000      1.982e+00
      9.460000      1.871e+00
      9.470000      1.796e+00
      9.480000      1.727e+00
      9.490000      1.677e+00
      9.500000      1.613e+00
      9.510000      1.525e+00
      9.520000      1.470e+00
      9.530000      1.424e+00
      9.540000      1.361e+00
      9.550000      1.317e+00
      9.560000      1.259e+00
      9.570000      1.200e+00
      9.580000      1.155e+00
      9.590000      1.064e+00
      9.600000      9.734e-01
      9.610000      9.090e-01
      9.620000      8.532e-01
      9.630000      8.178e-01
      9.640000      7.986e-01
      9.650000      7.826e-01
      9.660000      7.563e-01
      9.670000      7.367e-01
      9.680000      7.301e-01
      9.690000      7.268e-01
      9.700000      7.336e-01
      9.710000      7.382e-01
      9.720000      7.179e-01
      9.730000      6.888e-01
      9.740000      6.775e-01
      9.750000      6.660e-01
      9.760000      6.575e-01
      9.770000      6.797e-01
      9.780000      6.847e-01
      9.790000      6.513e-01
      9.800000      6.325e-01
      9.810000      6.268e-01
      9.820000      6.278e-01
      9.830000      6.454e-01
      9.840000      6.569e-01
      9.848415      6.600e-01
      9.850000      6.639e-01
      9.860000      6.486e-01
      9.870000      6.430e-01
      9.880000      6.291e-01
      9.890000      6.063e-01
      9.900000      6.104e-01
      9.910000      6.290e-01
      9.920000      6.568e-01
      9.930000      6.650e-01
      9.940000      6.414e-01
      9.950000      6.231e-01
      9.960000      6.190e-01
      9.970000      6.209e-01
      9.980000      6.218e-01
      9.990000      6.335e-01
     10.000000      6.471e-01
     10.010000      6.381e-01
     10.020000      6.282e-01
     10.030000      6.204e-01
     10.040000      6.182e-01
     10.050000      6.091e-01
     10.060000      5.887e-01
     10.070000      5.897e-01
     10.080000      5.823e-01
     10.090000      5.757e-01
     10.100000      5.779e-01
     10.110000      5.744e-01
     10.120000      5.799e-01
     10.130000      5.858e-01
     10.140000      5.879e-01
     10.150000      5.794e-01
     10.160000      5.754e-01
     10.170000      5.835e-01
     10.180000      5.914e-01
     10.190000      6.077e-01
     10.200000      6.304e-01
     10.210000      6.410e-01
     10.220000      6.393e-01
     10.230000      6.406e-01
     10.240000      6.435e-01
     10.250000      6.507e-01
     10.260000      6.856e-01
     10.270000      7.050e-01
     10.280000      7.027e-01
     10.290000      7.179e-01
     10.300000      7.205e-01
     10.310000      7.222e-01
     10.320000      7.138e-01
     10.330000      6.831e-01
     10.340000      6.725e-01
     10.350000      6.760e-01
     10.360000      6.831e-01
     10.370000      6.958e-01
     10.380000      7.109e-01
     10.390000      7.235e-01
     10.400000      7.182e-01
     10.410000      7.069e-01
     10.420000      7.095e-01
     10.430000      7.106e-01
     10.431970      7.148e-01
     10.440000      8.218e-01
     10.450000      8.195e-01
     10.460000      7.453e-01
     10.470000      7.519e-01
     10.480000      7.510e-01
     10.490000      7.501e-01
     10.500000      7.508e-01
     10.510000      7.650e-01
     10.520000      7.696e-01
     10.530000      7.687e-01
     10.540000      7.855e-01
     10.550000      7.891e-01
     10.560000      7.835e-01
     10.570000      8.058e-01
     10.580000      8.128e-01
     10.590000      8.056e-01
     10.600000      8.216e-01
     10.610000      8.629e-01
     10.620000      8.801e-01
     10.630000      8.794e-01
     10.640000      8.707e-01
     10.650000      8.519e-01
     10.660000      8.563e-01
     10.670000      8.649e-01
     10.680000      8.786e-01
     10.690000      8.989e-01
     10.700000      9.661e-01
     10.710000      9.922e-01
     10.720000      9.623e-01
     10.730000      9.638e-01
     10.740000      9.724e-01
     10.750000      9.849e-01
     10.760000      9.963e-01
     10.770000      1.010e+00
     10.780000      1.030e+00
     10.790000      1.063e+00
     10.800000      1.075e+00
     10.810000      1.071e+00
     10.820000      1.125e+00
     10.830000      1.150e+00
     10.840000      1.171e+00
     10.850000      1.164e+00
     10.860000      1.131e+00
     10.870000      1.214e+00
     10.880000      1.283e+00
     10.890000      1.236e+00
     10.900000      1.203e+00
     10.910000      1.236e+00
     10.920000      1.253e+00
     10.930000      1.259e+00
     10.940000      1.292e+00
     10.950000      1.401e+00
     10.960000      1.616e+00
     10.970000      1.560e+00
     10.980000      1.380e+00
     10.990000      1.382e+00
     11.000000      1.389e+00
     11.010000      1.421e+00
     11.020000      1.452e+00
     11.030000      1.498e+00
     11.040000      1.550e+00
     11.050000      1.570e+00
     11.050100      1.617e+00
     11.060000      1.786e+00
     11.070000      1.796e+00
     11.080000      1.609e+00
     11.090000      1.636e+00
     11.100000      1.684e+00
     11.110000      1.665e+00
     11.120000      1.673e+00
     11.130000      1.708e+00
     11.140000      1.866e+00
     11.150000      1.902e+00
     11.160000      1.795e+00
     11.170000      1.809e+00
     11.180000      1.829e+00
     11.190000      1.861e+00
     11.200000      1.905e+00
     11.210000      2.085e+00
     11.220000      2.099e+00
     11.230000      1.988e+00
     11.240000      2.094e+00
     11.250000      2.154e+00
     11.260000      2.149e+00
     11.270000      2.176e+00
     11.280000      2.214e+00
     11.290000      2.247e+00
     11.300000      2.304e+00
     11.310000      2.363e+00
     11.320000      2.398e+00
     11.330000      2.443e+00
     11.340000      2.514e+00
     11.350000      2.569e+00
     11.360000      2.626e+00
     11.370000      2.695e+00
     11.380000      2.752e+00
     11.390000      2.814e+00
     11.400000      2.886e+00
     11.410000      3.013e+00
     11.420000      3.115e+00
     11.430000      3.176e+00
     11.440000      3.267e+00
     11.450000      3.321e+00
     11.460000      3.377e+00
     11.470000      3.462e+00
     11.480000      3.552e+00
     11.490000      3.672e+00
